LabVIEW Measurement	
Writer_Version	2
Reader_Version	2
Separator	Tab
Decimal_Separator	.
Multi_Headings	Yes
X_Columns	One
Time_Pref	Absolute
Operator	Mechanical
Date	2019/02/21
Time	16:08:30.9810440911112771695
***End_of_Header***	
	
Channels	1	
Samples	2000	
Date	2019/02/21	
Time	16:08:30.9810440911112771695	
Y_Unit_Label	Volts	
X_Dimension	Time	
X0	0.0000000000000000E+0	
Delta_X	0.002000	
***End_of_Header***		
X_Value	Voltage	Comment
0.000000	-0.001141
0.002000	-0.001669
0.004000	-0.001442
0.006000	-0.000550
0.008000	0.000637
0.010000	0.001682
0.012000	0.002221
0.014000	0.001980
0.016000	0.001101
0.018000	-9.655952E-5
0.020000	-0.001167
0.022000	-0.001677
0.024000	-0.001426
0.026000	-0.000501
0.028000	0.000669
0.030000	0.001740
0.032000	0.002235
0.034000	0.001980
0.036000	0.001094
0.038000	-0.000124
0.040000	-0.001202
0.042000	-0.001720
0.044000	-0.001506
0.046000	-0.000609
0.048000	0.000607
0.050000	0.001702
0.052000	0.002220
0.054000	0.001998
0.056000	0.001093
0.058000	-0.000114
0.060000	-0.001197
0.062000	-0.001751
0.064000	-0.001513
0.066000	-0.000610
0.068000	0.000579
0.070000	0.001674
0.072000	0.002239
0.074000	0.002019
0.076000	0.001109
0.078000	-9.059906E-5
0.080000	-0.001143
0.082000	-0.001657
0.084000	-0.001414
0.086000	-0.000509
0.088000	0.000691
0.090000	0.001755
0.092000	0.002282
0.094000	0.002040
0.096000	0.001158
0.098000	-5.245209E-5
0.100000	-0.001129
0.102000	-0.001655
0.104000	-0.001446
0.106000	-0.000532
0.108000	0.000658
0.110000	0.001730
0.112000	0.002261
0.114000	0.002040
0.116000	0.001119
0.118000	-0.000117
0.120000	-0.001161
0.122000	-0.001667
0.124000	-0.001427
0.126000	-0.000539
0.128000	0.000652
0.130000	0.001712
0.132000	0.002233
0.134000	0.001990
0.136000	0.001078
0.138000	-0.000118
0.140000	-0.001187
0.142000	-0.001717
0.144000	-0.001472
0.146000	-0.000579
0.148000	0.000632
0.150000	0.001714
0.152000	0.002220
0.154000	0.001955
0.156000	0.001036
0.158000	-0.000122
0.160000	-0.001179
0.162000	-0.001675
0.164000	-0.001454
0.166000	-0.000533
0.168000	0.000725
0.170000	0.001774
0.172000	0.002265
0.174000	0.002018
0.176000	0.001106
0.178000	-8.702278E-5
0.180000	-0.001127
0.182000	-0.001650
0.184000	-0.001439
0.186000	-0.000535
0.188000	0.000681
0.190000	0.001743
0.192000	0.002247
0.194000	0.002021
0.196000	0.001122
0.198000	-0.000105
0.200000	-0.001156
0.202000	-0.001620
0.204000	-0.001397
0.206000	-0.000489
0.208000	0.000694
0.210000	0.001739
0.212000	0.002242
0.214000	0.001980
0.216000	0.001103
0.218000	-0.000107
0.220000	-0.001189
0.222000	-0.001669
0.224000	-0.001427
0.226000	-0.000519
0.228000	0.000689
0.230000	0.001765
0.232000	0.002232
0.234000	0.001944
0.236000	0.001031
0.238000	-0.000156
0.240000	-0.001208
0.242000	-0.001682
0.244000	-0.001419
0.246000	-0.000532
0.248000	0.000696
0.250000	0.001742
0.252000	0.002232
0.254000	0.001978
0.256000	0.001053
0.258000	-0.000147
0.260000	-0.001187
0.262000	-0.001693
0.264000	-0.001435
0.266000	-0.000492
0.268000	0.000708
0.270000	0.001756
0.272000	0.002260
0.274000	0.001968
0.276000	0.001065
0.278000	-0.000131
0.280000	-0.001174
0.282000	-0.001669
0.284000	-0.001408
0.286000	-0.000477
0.288000	0.000674
0.290000	0.001734
0.292000	0.002271
0.294000	0.002000
0.296000	0.001079
0.298000	-0.000126
0.300000	-0.001184
0.302000	-0.001690
0.304000	-0.001415
0.306000	-0.000511
0.308000	0.000684
0.310000	0.001760
0.312000	0.002259
0.314000	0.001992
0.316000	0.001075
0.318000	-0.000117
0.320000	-0.001162
0.322000	-0.001678
0.324000	-0.001450
0.326000	-0.000520
0.328000	0.000676
0.330000	0.001757
0.332000	0.002258
0.334000	0.001994
0.336000	0.001057
0.338000	-0.000161
0.340000	-0.001215
0.342000	-0.001694
0.344000	-0.001429
0.346000	-0.000534
0.348000	0.000697
0.350000	0.001768
0.352000	0.002259
0.354000	0.002002
0.356000	0.001054
0.358000	-0.000166
0.360000	-0.001215
0.362000	-0.001709
0.364000	-0.001423
0.366000	-0.000511
0.368000	0.000679
0.370000	0.001721
0.372000	0.002209
0.374000	0.001925
0.376000	0.000988
0.378000	-0.000200
0.380000	-0.001242
0.382000	-0.001743
0.384000	-0.001456
0.386000	-0.000521
0.388000	0.000687
0.390000	0.001740
0.392000	0.002196
0.394000	0.001929
0.396000	0.001013
0.398000	-0.000186
0.400000	-0.001214
0.402000	-0.001689
0.404000	-0.001441
0.406000	-0.000489
0.408000	0.000739
0.410000	0.001783
0.412000	0.002254
0.414000	0.001981
0.416000	0.001040
0.418000	-0.000151
0.420000	-0.001215
0.422000	-0.001701
0.424000	-0.001415
0.426000	-0.000499
0.428000	0.000731
0.430000	0.001785
0.432000	0.002228
0.434000	0.001968
0.436000	0.001038
0.438000	-0.000184
0.440000	-0.001230
0.442000	-0.001698
0.444000	-0.001413
0.446000	-0.000485
0.448000	0.000721
0.450000	0.001789
0.452000	0.002242
0.454000	0.001956
0.456000	0.001019
0.458000	-0.000161
0.460000	-0.001204
0.462000	-0.001687
0.464000	-0.001453
0.466000	-0.000535
0.468000	0.000690
0.470000	0.001744
0.472000	0.002266
0.474000	0.001991
0.476000	0.001034
0.478000	-0.000192
0.480000	-0.001221
0.482000	-0.001688
0.484000	-0.001417
0.486000	-0.000480
0.488000	0.000681
0.490000	0.001736
0.492000	0.002230
0.494000	0.001932
0.496000	0.001003
0.498000	-0.000182
0.500000	-0.001214
0.502000	-0.001700
0.504000	-0.001404
0.506000	-0.000483
0.508000	0.000701
0.510000	0.001768
0.512000	0.002236
0.514000	0.001980
0.516000	0.001055
0.518000	-0.000186
0.520000	-0.001251
0.522000	-0.001709
0.524000	-0.001451
0.526000	-0.000503
0.528000	0.000710
0.530000	0.001736
0.532000	0.002224
0.534000	0.001984
0.536000	0.001068
0.538000	-0.000166
0.540000	-0.001224
0.542000	-0.001689
0.544000	-0.001396
0.546000	-0.000442
0.548000	0.000721
0.550000	0.001748
0.552000	0.002215
0.554000	0.001937
0.556000	0.001014
0.558000	-0.000187
0.560000	-0.001215
0.562000	-0.001713
0.564000	-0.001433
0.566000	-0.000467
0.568000	0.000727
0.570000	0.001714
0.572000	0.002222
0.574000	0.001963
0.576000	0.001009
0.578000	-0.000179
0.580000	-0.001205
0.582000	-0.001684
0.584000	-0.001394
0.586000	-0.000468
0.588000	0.000716
0.590000	0.001768
0.592000	0.002259
0.594000	0.001957
0.596000	0.001044
0.598000	-0.000187
0.600000	-0.001236
0.602000	-0.001683
0.604000	-0.001394
0.606000	-0.000468
0.608000	0.000715
0.610000	0.001738
0.612000	0.002196
0.614000	0.001945
0.616000	0.001009
0.618000	-0.000187
0.620000	-0.001234
0.622000	-0.001718
0.624000	-0.001436
0.626000	-0.000486
0.628000	0.000724
0.630000	0.001743
0.632000	0.002196
0.634000	0.001932
0.636000	0.001005
0.638000	-0.000194
0.640000	-0.001230
0.642000	-0.001698
0.644000	-0.001403
0.646000	-0.000468
0.648000	0.000745
0.650000	0.001763
0.652000	0.002222
0.654000	0.001935
0.656000	0.000981
0.658000	-0.000204
0.660000	-0.001229
0.662000	-0.001682
0.664000	-0.001400
0.666000	-0.000495
0.668000	0.000720
0.670000	0.001789
0.672000	0.002264
0.674000	0.001943
0.676000	0.000974
0.678000	-0.000193
0.680000	-0.001218
0.682000	-0.001674
0.684000	-0.001370
0.686000	-0.000447
0.688000	0.000747
0.690000	0.001756
0.692000	0.002232
0.694000	0.001951
0.696000	0.001025
0.698000	-0.000197
0.700000	-0.001210
0.702000	-0.001670
0.704000	-0.001390
0.706000	-0.000454
0.708000	0.000722
0.710000	0.001754
0.712000	0.002210
0.714000	0.001909
0.716000	0.000987
0.718000	-0.000216
0.720000	-0.001265
0.722000	-0.001712
0.724000	-0.001403
0.726000	-0.000455
0.728000	0.000732
0.730000	0.001745
0.732000	0.002185
0.734000	0.001893
0.736000	0.000958
0.738000	-0.000246
0.740000	-0.001233
0.742000	-0.001676
0.744000	-0.001380
0.746000	-0.000449
0.748000	0.000737
0.750000	0.001798
0.752000	0.002249
0.754000	0.001934
0.756000	0.000986
0.758000	-0.000222
0.760000	-0.001281
0.762000	-0.001733
0.764000	-0.001442
0.766000	-0.000507
0.768000	0.000720
0.770000	0.001765
0.772000	0.002217
0.774000	0.001905
0.776000	0.000976
0.778000	-0.000254
0.780000	-0.001320
0.782000	-0.001777
0.784000	-0.001456
0.786000	-0.000461
0.788000	0.000745
0.790000	0.001777
0.792000	0.002259
0.794000	0.001978
0.796000	0.001012
0.798000	-0.000219
0.800000	-0.001240
0.802000	-0.001704
0.804000	-0.001392
0.806000	-0.000418
0.808000	0.000759
0.810000	0.001824
0.812000	0.002283
0.814000	0.001990
0.816000	0.001017
0.818000	-0.000191
0.820000	-0.001227
0.822000	-0.001668
0.824000	-0.001407
0.826000	-0.000464
0.828000	0.000749
0.830000	0.001773
0.832000	0.002238
0.834000	0.001926
0.836000	0.000988
0.838000	-0.000204
0.840000	-0.001258
0.842000	-0.001723
0.844000	-0.001446
0.846000	-0.000483
0.848000	0.000741
0.850000	0.001771
0.852000	0.002220
0.854000	0.001913
0.856000	0.000987
0.858000	-0.000200
0.860000	-0.001239
0.862000	-0.001651
0.864000	-0.001323
0.866000	-0.000372
0.868000	0.000817
0.870000	0.001826
0.872000	0.002310
0.874000	0.001991
0.876000	0.001012
0.878000	-0.000205
0.880000	-0.001224
0.882000	-0.001684
0.884000	-0.001380
0.886000	-0.000423
0.888000	0.000768
0.890000	0.001796
0.892000	0.002264
0.894000	0.001985
0.896000	0.001016
0.898000	-0.000196
0.900000	-0.001240
0.902000	-0.001687
0.904000	-0.001398
0.906000	-0.000457
0.908000	0.000743
0.910000	0.001761
0.912000	0.002241
0.914000	0.001951
0.916000	0.000992
0.918000	-0.000231
0.920000	-0.001271
0.922000	-0.001715
0.924000	-0.001388
0.926000	-0.000418
0.928000	0.000777
0.930000	0.001811
0.932000	0.002294
0.934000	0.001966
0.936000	0.000985
0.938000	-0.000215
0.940000	-0.001247
0.942000	-0.001715
0.944000	-0.001425
0.946000	-0.000478
0.948000	0.000724
0.950000	0.001748
0.952000	0.002209
0.954000	0.001911
0.956000	0.000945
0.958000	-0.000260
0.960000	-0.001295
0.962000	-0.001770
0.964000	-0.001439
0.966000	-0.000474
0.968000	0.000714
0.970000	0.001746
0.972000	0.002223
0.974000	0.001894
0.976000	0.000948
0.978000	-0.000246
0.980000	-0.001292
0.982000	-0.001721
0.984000	-0.001420
0.986000	-0.000465
0.988000	0.000753
0.990000	0.001787
0.992000	0.002221
0.994000	0.001920
0.996000	0.000966
0.998000	-0.000247
1.000000	-0.001266
1.002000	-0.001723
1.004000	-0.001422
1.006000	-0.000461
1.008000	0.000778
1.010000	0.001841
1.012000	0.002278
1.014000	0.001953
1.016000	0.000998
1.018000	-0.000224
1.020000	-0.001239
1.022000	-0.001656
1.024000	-0.001310
1.026000	-0.000360
1.028000	0.000831
1.030000	0.001858
1.032000	0.002289
1.034000	0.001957
1.036000	0.001012
1.038000	-0.000173
1.040000	-0.001186
1.042000	-0.001659
1.044000	-0.001329
1.046000	-0.000381
1.048000	0.000808
1.050000	0.001851
1.052000	0.002311
1.054000	0.001966
1.056000	0.001000
1.058000	-0.000193
1.060000	-0.001192
1.062000	-0.001640
1.064000	-0.001359
1.066000	-0.000397
1.068000	0.000787
1.070000	0.001836
1.072000	0.002265
1.074000	0.001915
1.076000	0.000961
1.078000	-0.000256
1.080000	-0.001286
1.082000	-0.001718
1.084000	-0.001407
1.086000	-0.000435
1.088000	0.000782
1.090000	0.001825
1.092000	0.002251
1.094000	0.001942
1.096000	0.000958
1.098000	-0.000274
1.100000	-0.001317
1.102000	-0.001721
1.104000	-0.001382
1.106000	-0.000397
1.108000	0.000807
1.110000	0.001817
1.112000	0.002263
1.114000	0.001945
1.116000	0.000982
1.118000	-0.000221
1.120000	-0.001272
1.122000	-0.001725
1.124000	-0.001411
1.126000	-0.000428
1.128000	0.000809
1.130000	0.001835
1.132000	0.002278
1.134000	0.001959
1.136000	0.001005
1.138000	-0.000187
1.140000	-0.001212
1.142000	-0.001634
1.144000	-0.001320
1.146000	-0.000358
1.148000	0.000843
1.150000	0.001854
1.152000	0.002291
1.154000	0.001957
1.156000	0.000994
1.158000	-0.000232
1.160000	-0.001259
1.162000	-0.001724
1.164000	-0.001413
1.166000	-0.000432
1.168000	0.000780
1.170000	0.001807
1.172000	0.002240
1.174000	0.001926
1.176000	0.000967
1.178000	-0.000229
1.180000	-0.001240
1.182000	-0.001688
1.184000	-0.001360
1.186000	-0.000416
1.188000	0.000792
1.190000	0.001804
1.192000	0.002242
1.194000	0.001938
1.196000	0.000994
1.198000	-0.000216
1.200000	-0.001249
1.202000	-0.001714
1.204000	-0.001391
1.206000	-0.000411
1.208000	0.000768
1.210000	0.001786
1.212000	0.002255
1.214000	0.001923
1.216000	0.000987
1.218000	-0.000222
1.220000	-0.001256
1.222000	-0.001669
1.224000	-0.001385
1.226000	-0.000436
1.228000	0.000794
1.230000	0.001814
1.232000	0.002264
1.234000	0.001945
1.236000	0.001000
1.238000	-0.000193
1.240000	-0.001224
1.242000	-0.001668
1.244000	-0.001347
1.246000	-0.000360
1.248000	0.000820
1.250000	0.001833
1.252000	0.002273
1.254000	0.001947
1.256000	0.000997
1.258000	-0.000236
1.260000	-0.001267
1.262000	-0.001704
1.264000	-0.001394
1.266000	-0.000441
1.268000	0.000761
1.270000	0.001833
1.272000	0.002285
1.274000	0.001934
1.276000	0.000964
1.278000	-0.000234
1.280000	-0.001253
1.282000	-0.001678
1.284000	-0.001346
1.286000	-0.000392
1.288000	0.000778
1.290000	0.001822
1.292000	0.002300
1.294000	0.001987
1.296000	0.001012
1.298000	-0.000197
1.300000	-0.001192
1.302000	-0.001657
1.304000	-0.001361
1.306000	-0.000420
1.308000	0.000790
1.310000	0.001831
1.312000	0.002260
1.314000	0.001920
1.316000	0.000951
1.318000	-0.000226
1.320000	-0.001255
1.322000	-0.001696
1.324000	-0.001348
1.326000	-0.000384
1.328000	0.000776
1.330000	0.001805
1.332000	0.002232
1.334000	0.001947
1.336000	0.001012
1.338000	-0.000207
1.340000	-0.001251
1.342000	-0.001745
1.344000	-0.001416
1.346000	-0.000446
1.348000	0.000758
1.350000	0.001788
1.352000	0.002227
1.354000	0.001886
1.356000	0.000957
1.358000	-0.000219
1.360000	-0.001260
1.362000	-0.001705
1.364000	-0.001370
1.366000	-0.000398
1.368000	0.000802
1.370000	0.001785
1.372000	0.002220
1.374000	0.001904
1.376000	0.000973
1.378000	-0.000248
1.380000	-0.001295
1.382000	-0.001689
1.384000	-0.001378
1.386000	-0.000428
1.388000	0.000778
1.390000	0.001794
1.392000	0.002228
1.394000	0.001911
1.396000	0.000956
1.398000	-0.000256
1.400000	-0.001246
1.402000	-0.001706
1.404000	-0.001408
1.406000	-0.000442
1.408000	0.000751
1.410000	0.001781
1.412000	0.002258
1.414000	0.001953
1.416000	0.000998
1.418000	-0.000256
1.420000	-0.001276
1.422000	-0.001702
1.424000	-0.001370
1.426000	-0.000439
1.428000	0.000761
1.430000	0.001794
1.432000	0.002259
1.434000	0.001938
1.436000	0.000993
1.438000	-0.000215
1.440000	-0.001256
1.442000	-0.001695
1.444000	-0.001383
1.446000	-0.000455
1.448000	0.000765
1.450000	0.001787
1.452000	0.002236
1.454000	0.001936
1.456000	0.000973
1.458000	-0.000237
1.460000	-0.001239
1.462000	-0.001668
1.464000	-0.001343
1.466000	-0.000384
1.468000	0.000802
1.470000	0.001833
1.472000	0.002289
1.474000	0.001963
1.476000	0.001012
1.478000	-0.000175
1.480000	-0.001222
1.482000	-0.001645
1.484000	-0.001309
1.486000	-0.000368
1.488000	0.000823
1.490000	0.001835
1.492000	0.002266
1.494000	0.001936
1.496000	0.000957
1.498000	-0.000253
1.500000	-0.001291
1.502000	-0.001736
1.504000	-0.001407
1.506000	-0.000434
1.508000	0.000737
1.510000	0.001761
1.512000	0.002218
1.514000	0.001919
1.516000	0.000970
1.518000	-0.000249
1.520000	-0.001291
1.522000	-0.001712
1.524000	-0.001355
1.526000	-0.000393
1.528000	0.000788
1.530000	0.001818
1.532000	0.002275
1.534000	0.001971
1.536000	0.001025
1.538000	-0.000188
1.540000	-0.001218
1.542000	-0.001680
1.544000	-0.001400
1.546000	-0.000453
1.548000	0.000770
1.550000	0.001788
1.552000	0.002245
1.554000	0.001930
1.556000	0.000993
1.558000	-0.000210
1.560000	-0.001241
1.562000	-0.001707
1.564000	-0.001359
1.566000	-0.000422
1.568000	0.000768
1.570000	0.001807
1.572000	0.002244
1.574000	0.001909
1.576000	0.000930
1.578000	-0.000278
1.580000	-0.001279
1.582000	-0.001717
1.584000	-0.001391
1.586000	-0.000448
1.588000	0.000757
1.590000	0.001814
1.592000	0.002246
1.594000	0.001943
1.596000	0.000974
1.598000	-0.000229
1.600000	-0.001221
1.602000	-0.001718
1.604000	-0.001391
1.606000	-0.000416
1.608000	0.000792
1.610000	0.001838
1.612000	0.002282
1.614000	0.001968
1.616000	0.001013
1.618000	-0.000209
1.620000	-0.001249
1.622000	-0.001711
1.624000	-0.001425
1.626000	-0.000446
1.628000	0.000787
1.630000	0.001781
1.632000	0.002211
1.634000	0.001906
1.636000	0.000949
1.638000	-0.000255
1.640000	-0.001253
1.642000	-0.001671
1.644000	-0.001360
1.646000	-0.000411
1.648000	0.000793
1.650000	0.001838
1.652000	0.002282
1.654000	0.001947
1.656000	0.000975
1.658000	-0.000209
1.660000	-0.001235
1.662000	-0.001688
1.664000	-0.001345
1.666000	-0.000410
1.668000	0.000802
1.670000	0.001848
1.672000	0.002289
1.674000	0.001994
1.676000	0.001030
1.678000	-0.000178
1.680000	-0.001203
1.682000	-0.001663
1.684000	-0.001376
1.686000	-0.000433
1.688000	0.000796
1.690000	0.001794
1.692000	0.002258
1.694000	0.001945
1.696000	0.000979
1.698000	-0.000248
1.700000	-0.001285
1.702000	-0.001732
1.704000	-0.001402
1.706000	-0.000452
1.708000	0.000750
1.710000	0.001796
1.712000	0.002249
1.714000	0.001945
1.716000	0.001000
1.718000	-0.000229
1.720000	-0.001245
1.722000	-0.001683
1.724000	-0.001385
1.726000	-0.000441
1.728000	0.000745
1.730000	0.001764
1.732000	0.002214
1.734000	0.001901
1.736000	0.000932
1.738000	-0.000271
1.740000	-0.001295
1.742000	-0.001729
1.744000	-0.001411
1.746000	-0.000439
1.748000	0.000768
1.750000	0.001825
1.752000	0.002275
1.754000	0.001943
1.756000	0.000962
1.758000	-0.000243
1.760000	-0.001248
1.762000	-0.001687
1.764000	-0.001373
1.766000	-0.000440
1.768000	0.000751
1.770000	0.001808
1.772000	0.002241
1.774000	0.001895
1.776000	0.000945
1.778000	-0.000253
1.780000	-0.001254
1.782000	-0.001695
1.784000	-0.001343
1.786000	-0.000421
1.788000	0.000784
1.790000	0.001819
1.792000	0.002247
1.794000	0.001926
1.796000	0.000964
1.798000	-0.000224
1.800000	-0.001241
1.802000	-0.001698
1.804000	-0.001373
1.806000	-0.000417
1.808000	0.000776
1.810000	0.001792
1.812000	0.002221
1.814000	0.001885
1.816000	0.000923
1.818000	-0.000252
1.820000	-0.001285
1.822000	-0.001721
1.824000	-0.001388
1.826000	-0.000454
1.828000	0.000732
1.830000	0.001770
1.832000	0.002234
1.834000	0.001924
1.836000	0.000961
1.838000	-0.000225
1.840000	-0.001246
1.842000	-0.001692
1.844000	-0.001401
1.846000	-0.000429
1.848000	0.000777
1.850000	0.001785
1.852000	0.002221
1.854000	0.001917
1.856000	0.000924
1.858000	-0.000261
1.860000	-0.001270
1.862000	-0.001739
1.864000	-0.001417
1.866000	-0.000466
1.868000	0.000705
1.870000	0.001733
1.872000	0.002223
1.874000	0.001910
1.876000	0.000988
1.878000	-0.000204
1.880000	-0.001243
1.882000	-0.001720
1.884000	-0.001411
1.886000	-0.000460
1.888000	0.000772
1.890000	0.001807
1.892000	0.002275
1.894000	0.001956
1.896000	0.000964
1.898000	-0.000246
1.900000	-0.001266
1.902000	-0.001713
1.904000	-0.001428
1.906000	-0.000465
1.908000	0.000774
1.910000	0.001791
1.912000	0.002227
1.914000	0.001920
1.916000	0.000957
1.918000	-0.000230
1.920000	-0.001242
1.922000	-0.001677
1.924000	-0.001383
1.926000	-0.000443
1.928000	0.000753
1.930000	0.001770
1.932000	0.002232
1.934000	0.001926
1.936000	0.000967
1.938000	-0.000240
1.940000	-0.001249
1.942000	-0.001712
1.944000	-0.001404
1.946000	-0.000465
1.948000	0.000713
1.950000	0.001771
1.952000	0.002223
1.954000	0.001919
1.956000	0.000980
1.958000	-0.000207
1.960000	-0.001216
1.962000	-0.001677
1.964000	-0.001383
1.966000	-0.000447
1.968000	0.000747
1.970000	0.001787
1.972000	0.002248
1.974000	0.001957
1.976000	0.001010
1.978000	-0.000186
1.980000	-0.001230
1.982000	-0.001698
1.984000	-0.001405
1.986000	-0.000445
1.988000	0.000786
1.990000	0.001819
1.992000	0.002235
1.994000	0.001912
1.996000	0.000998
1.998000	-0.000225
2.000000	-0.001276
2.002000	-0.001717
2.004000	-0.001417
2.006000	-0.000480
2.008000	0.000713
2.010000	0.001754
2.012000	0.002229
2.014000	0.001913
2.016000	0.000964
2.018000	-0.000269
2.020000	-0.001320
2.022000	-0.001762
2.024000	-0.001458
2.026000	-0.000499
2.028000	0.000722
2.030000	0.001752
2.032000	0.002195
2.034000	0.001915
2.036000	0.000976
2.038000	-0.000234
2.040000	-0.001252
2.042000	-0.001700
2.044000	-0.001388
2.046000	-0.000436
2.048000	0.000758
2.050000	0.001812
2.052000	0.002286
2.054000	0.001963
2.056000	0.001016
2.058000	-0.000191
2.060000	-0.001197
2.062000	-0.001689
2.064000	-0.001391
2.066000	-0.000411
2.068000	0.000749
2.070000	0.001769
2.072000	0.002239
2.074000	0.001945
2.076000	0.000998
2.078000	-0.000247
2.080000	-0.001292
2.082000	-0.001744
2.084000	-0.001440
2.086000	-0.000479
2.088000	0.000753
2.090000	0.001768
2.092000	0.002215
2.094000	0.001923
2.096000	0.000964
2.098000	-0.000225
2.100000	-0.001252
2.102000	-0.001721
2.104000	-0.001420
2.106000	-0.000497
2.108000	0.000687
2.110000	0.001701
